SpectraSuite Data File
++++++++++++++++++++++++++++++++++++
Date: Mon Apr 24 13:45:12 ART 2023
User: guille
Dark Spectrum Present: No
Reference Spectrum Present: No
Number of Sampled Component Spectra: 1
Spectrometers: USB2+H13674
Integration Time (usec): 3000 (USB2+H13674)
Spectra Averaged: 10 (USB2+H13674)
Boxcar Smoothing: 0 (USB2+H13674)
Correct for Electrical Dark: No (USB2+H13674)
Strobe/Lamp Enabled: No (USB2+H13674)
Correct for Detector Non-linearity: No (USB2+H13674)
Correct for Stray Light: No (USB2+H13674)
Number of Pixels in Processed Spectrum: 2048
>>>>>Begin Processed Spectral Data<<<<<
339.87	0.00
340.25	0.00
340.63	0.00
341.02	0.00
341.40	0.00
341.78	0.00
342.16	0.00
342.55	0.00
342.93	0.00
343.31	0.00
343.69	0.00
344.08	0.00
344.46	0.00
344.84	0.00
345.22	0.00
345.60	0.00
345.99	0.00
346.37	0.00
346.75	0.00
347.13	0.00
347.51	0.00
347.90	0.00
348.28	0.00
348.66	0.00
349.04	0.00
349.42	0.00
349.80	0.00
350.19	0.00
350.57	0.00
350.95	0.00
351.33	0.00
351.71	0.00
352.09	0.00
352.47	0.00
352.86	0.00
353.24	0.00
353.62	0.00
354.00	0.00
354.38	0.00
354.76	0.00
355.14	0.00
355.52	0.00
355.90	0.00
356.28	0.00
356.67	0.00
357.05	0.00
357.43	0.00
357.81	0.00
358.19	0.00
358.57	0.00
358.95	0.00
359.33	0.00
359.71	0.00
360.09	0.00
360.47	0.00
360.85	0.00
361.23	0.00
361.61	0.00
361.99	0.00
362.37	0.00
362.75	0.00
363.13	0.00
363.51	0.00
363.89	0.00
364.27	0.00
364.65	0.00
365.03	0.00
365.41	0.00
365.79	0.00
366.17	0.00
366.55	0.00
366.93	0.00
367.31	0.00
367.69	0.00
368.07	0.00
368.45	0.00
368.83	0.00
369.21	0.00
369.59	0.00
369.97	0.00
370.35	0.00
370.73	0.00
371.11	0.00
371.49	0.00
371.87	0.00
372.25	0.00
372.62	0.00
373.00	0.00
373.38	0.00
373.76	0.00
374.14	0.00
374.52	0.00
374.90	0.00
375.28	0.00
375.66	0.00
376.03	0.00
376.41	0.00
376.79	0.00
377.17	0.00
377.55	0.00
377.93	0.00
378.31	0.00
378.68	0.00
379.06	0.00
379.44	0.00
379.82	0.00
380.20	0.00
380.58	0.00
380.95	0.00
381.33	0.00
381.71	0.00
382.09	0.00
382.47	0.00
382.85	0.00
383.22	0.00
383.60	0.00
383.98	0.00
384.36	0.00
384.73	0.00
385.11	3.00
385.49	11.74
385.87	0.82
386.25	10.65
386.62	15.84
387.00	37.96
387.38	45.87
387.76	64.72
388.13	81.65
388.51	70.18
388.89	86.29
389.26	145.82
389.64	195.79
390.02	249.03
390.40	278.80
390.77	268.97
391.15	329.31
391.53	419.97
391.90	392.94
392.28	386.11
392.66	344.06
393.04	252.31
393.41	144.45
393.79	105.40
394.17	242.75
394.54	388.29
394.92	498.34
395.30	655.08
395.67	724.43
396.05	711.60
396.42	597.46
396.80	383.11
397.18	288.08
397.55	473.22
397.93	767.31
398.31	999.41
398.68	1140.04
399.06	1247.08
399.44	1340.74
399.81	1388.25
400.19	1472.08
400.56	1507.85
400.94	1532.15
401.32	1621.72
401.69	1716.47
402.07	1813.68
402.44	1846.18
402.82	1909.25
403.19	1827.06
403.57	1846.99
403.95	1950.49
404.32	2006.74
404.70	1875.39
405.07	2015.20
405.45	2091.39
405.82	2132.35
406.20	2119.51
406.57	2109.13
406.95	2138.90
407.32	2198.43
407.70	2283.08
408.07	2394.21
408.45	2435.17
408.82	2673.01
409.20	2712.88
409.57	2695.95
409.95	2545.76
410.32	2406.50
410.70	2412.51
411.07	2642.43
411.45	2877.53
411.82	3038.37
412.20	3004.51
412.57	3056.39
412.95	3027.17
413.32	2969.01
413.70	3084.24
414.07	3122.74
414.45	3133.94
414.82	3072.77
415.19	3107.72
415.57	3166.43
415.94	3333.00
416.32	3422.57
416.69	3456.15
417.07	3468.99
417.44	3376.42
417.81	3247.81
418.19	3320.71
418.56	3396.62
418.94	3407.55
419.31	3588.59
419.68	3610.71
420.06	3509.67
420.43	3537.25
420.80	3712.83
421.18	4006.10
421.55	3995.45
421.93	4008.83
422.30	3994.09
422.67	3729.49
423.05	3766.35
423.42	3859.74
423.79	4159.29
424.17	4211.72
424.54	4406.96
424.91	4349.07
425.29	4415.97
425.66	4491.33
426.03	4454.20
426.40	4672.92
426.78	4744.46
427.15	4718.25
427.52	4607.11
427.90	4574.62
428.27	4909.94
428.64	5023.80
429.02	4994.59
429.39	4887.00
429.76	4623.49
430.13	4330.23
430.51	4038.05
430.88	3767.72
431.25	4111.23
431.62	5018.62
432.00	5897.60
432.37	6386.93
432.74	6074.28
433.11	5976.52
433.48	6367.27
433.86	6241.39
434.23	5580.85
434.60	5669.05
434.97	6018.57
435.35	6417.79
435.72	6442.09
436.09	6715.43
436.46	6873.26
436.83	6976.20
437.21	6914.49
437.58	6650.98
437.95	6588.18
438.32	6247.67
438.69	6051.34
439.06	6042.05
439.44	6432.26
439.81	6717.61
440.18	6877.35
440.55	6724.16
440.92	6676.38
441.29	6956.27
441.66	7209.40
442.03	7483.55
442.41	7534.89
442.78	7698.45
443.15	7614.07
443.52	7564.10
443.89	7553.18
444.26	7618.17
444.63	7779.82
445.00	7890.41
445.37	7817.51
445.74	7579.94
446.12	7312.61
446.49	7552.91
446.86	7815.32
447.23	8217.27
447.60	8565.42
447.97	8708.24
448.34	8561.33
448.71	8649.25
449.08	8702.50
449.45	9010.24
449.82	9044.92
450.19	9441.96
450.56	10030.95
450.93	10189.33
451.30	10472.77
451.67	10450.65
452.04	10500.89
452.41	10539.94
452.78	10230.01
453.15	9982.89
453.52	9912.71
453.89	10350.98
454.26	11116.92
454.63	11472.45
455.00	11344.93
455.37	11189.01
455.74	11394.08
456.11	12046.97
456.48	12104.59
456.85	12522.65
457.22	12590.64
457.59	13094.17
457.96	13135.67
458.33	12943.98
458.70	12782.60
459.07	13043.92
459.43	13199.84
459.80	13486.28
460.17	13469.08
460.54	13917.18
460.91	14001.01
461.28	14409.51
461.65	14600.11
462.02	14798.08
462.39	14758.21
462.76	14944.71
463.12	15349.39
463.49	15229.24
463.86	15241.26
464.23	15216.68
464.60	14751.93
464.97	14703.05
465.34	14982.67
465.70	15512.13
466.07	15662.59
466.44	15684.71
466.81	15246.72
467.18	14724.90
467.55	15086.70
467.91	15461.62
468.28	15454.79
468.65	15906.44
469.02	15940.02
469.39	16158.20
469.75	16300.47
470.12	16031.77
470.49	15384.34
470.86	15506.67
471.23	15791.75
471.59	16165.03
471.96	16792.25
472.33	17359.68
472.70	17470.81
473.06	17032.00
473.43	16446.55
473.80	16848.78
474.17	17107.91
474.53	17759.71
474.90	18014.75
475.27	18216.00
475.64	17933.38
476.00	17675.61
476.37	17701.28
476.74	18061.45
477.11	17997.55
477.47	18469.13
477.84	19203.12
478.21	19608.89
478.57	19542.81
478.94	19228.24
479.31	19374.60
479.67	20130.44
480.04	20310.93
480.41	19905.44
480.77	20295.64
481.14	20464.67
481.51	20915.77
481.87	21481.01
482.24	21750.52
482.61	21697.82
482.97	21637.20
483.34	21834.90
483.71	21748.61
484.07	21666.42
484.44	21850.46
484.80	22284.63
485.17	22282.72
485.54	21839.81
485.90	20606.66
486.27	18552.41
486.63	18594.19
487.00	19847.27
487.37	21429.67
487.73	22359.45
488.10	23276.67
488.46	23731.32
488.83	23519.69
489.19	22889.19
489.56	23361.59
489.93	24541.22
490.29	25155.88
490.66	24933.61
491.02	24612.49
491.39	24563.61
491.75	24001.10
492.12	23199.12
492.48	22639.88
492.85	23736.50
493.21	25099.36
493.58	25268.11
493.94	24448.38
494.31	25026.45
494.67	25702.55
495.04	26421.80
495.40	26660.18
495.77	25757.71
496.13	25667.88
496.50	25947.49
496.86	26363.64
497.23	26437.91
497.59	26196.80
497.96	26328.41
498.32	25444.51
498.69	24666.28
499.05	24972.93
499.41	25582.68
499.78	25567.11
500.14	25285.31
500.51	24543.95
500.87	24133.81
501.24	24064.73
501.60	23873.58
501.96	23676.70
502.33	24054.35
502.69	24261.60
503.06	24896.75
503.42	25081.61
503.78	24718.44
504.15	24115.51
504.51	24173.68
504.88	25015.53
505.24	25385.80
505.60	25797.03
505.97	26283.63
506.33	26195.43
506.69	25723.85
507.06	25291.05
507.42	24998.60
507.78	24721.17
508.15	24252.32
508.51	24342.43
508.87	24599.11
509.24	25745.42
509.60	25911.72
509.96	25585.41
510.33	25457.89
510.69	25312.07
511.05	25209.40
511.41	25895.06
511.78	26170.04
512.14	26161.85
512.50	25709.11
512.87	25255.55
513.23	25061.68
513.59	25637.29
513.95	25235.62
514.32	25170.63
514.68	25081.34
515.04	25563.57
515.40	25863.93
515.77	26151.47
516.13	26328.96
516.49	25148.78
516.85	23142.59
517.22	21318.81
517.58	22109.32
517.94	23991.00
518.30	24700.41
518.66	24176.13
519.03	24269.25
519.39	25651.22
519.75	26263.70
520.11	26713.16
520.47	27068.14
520.83	26956.73
521.20	26934.61
521.56	27478.83
521.92	28608.49
522.28	28882.09
522.64	28589.92
523.00	28036.97
523.37	27660.41
523.73	28707.61
524.09	29440.78
524.45	29998.10
524.81	30302.84
525.17	29905.80
525.53	29895.70
525.89	30235.39
526.26	29400.09
526.62	28095.13
526.98	26551.51
527.34	26951.00
527.70	28517.83
528.06	29967.79
528.42	30513.37
528.78	30925.15
529.14	31790.48
529.50	32197.35
529.86	31666.51
530.22	31327.37
530.59	32256.33
530.95	33765.82
531.31	34105.78
531.67	34128.72
532.03	33620.00
532.39	32525.02
532.75	31083.80
533.11	30486.06
533.47	31270.84
533.83	32352.72
534.19	32887.10
534.55	32721.35
534.91	32775.15
535.27	33062.95
535.63	33465.72
535.99	33900.44
536.35	33709.57
536.71	33003.97
537.07	32237.49
537.43	33048.48
537.79	33709.02
538.15	34642.89
538.51	34585.28
538.87	34426.63
539.22	33948.50
539.58	33265.84
539.94	32845.60
540.30	32676.57
540.66	32035.15
541.02	31889.88
541.38	32404.87
541.74	33444.97
542.10	33917.64
542.46	33881.32
542.82	33928.29
543.18	33719.12
543.53	33854.02
543.89	34275.35
544.25	34979.03
544.61	34878.00
544.97	34648.35
545.33	34359.45
545.69	34928.79
546.05	34297.20
546.40	34397.96
546.76	34234.12
547.12	34408.88
547.48	34245.59
547.84	33245.09
548.20	33213.68
548.55	33600.07
548.91	34046.80
549.27	34269.07
549.63	34316.86
549.99	34165.85
550.34	33878.86
550.70	33649.76
551.06	33544.91
551.42	33345.30
551.78	33477.19
552.13	33924.74
552.49	33849.37
552.85	33731.14
553.21	33326.46
553.57	33005.06
553.92	33579.04
554.28	33573.03
554.64	33276.76
555.00	33635.29
555.35	33320.72
555.71	33093.54
556.07	33066.23
556.42	32638.34
556.78	32115.70
557.14	32214.82
557.50	31977.80
557.85	32309.30
558.21	32318.31
558.57	31857.93
558.92	31184.83
559.28	30695.23
559.64	30887.19
559.99	31138.96
560.35	30953.27
560.71	31625.28
561.06	32389.31
561.42	31938.76
561.78	31328.73
562.13	31066.59
562.49	31340.75
562.85	31699.01
563.20	31606.44
563.56	31335.01
563.92	31063.86
564.27	30935.52
564.63	30725.81
564.98	30687.04
565.34	30802.82
565.70	30306.93
566.05	29479.01
566.41	29481.47
566.76	30215.18
567.12	30621.23
567.48	30884.73
567.83	31131.58
568.19	30785.07
568.54	30538.49
568.90	30079.47
569.25	30186.24
569.61	30283.18
569.97	30370.56
570.32	30315.40
570.68	29659.23
571.03	28881.27
571.39	28698.32
571.74	29132.22
572.10	29977.62
572.45	30658.91
572.81	30882.82
573.16	30981.94
573.52	31046.11
573.87	31058.13
574.23	30829.58
574.58	30273.35
574.94	29975.98
575.29	29493.48
575.65	29249.64
576.00	29286.23
576.36	29525.16
576.71	29593.15
577.07	29817.33
577.42	29935.57
577.78	29482.56
578.13	28892.47
578.48	28240.40
578.84	28240.67
579.19	28009.66
579.55	27889.24
579.90	27553.10
580.26	27597.33
580.61	27570.85
580.96	27431.86
581.32	27308.98
581.67	27673.79
582.03	27708.47
582.38	27571.67
582.73	27658.77
583.09	27201.67
583.44	27333.83
583.79	27286.59
584.15	27431.31
584.50	27421.21
584.86	27306.25
585.21	26863.07
585.56	26440.10
585.92	25838.27
586.27	25398.91
586.62	25647.94
586.98	25800.58
587.33	26013.57
587.68	26047.98
588.04	26114.61
588.39	25750.07
588.74	24738.10
589.09	23561.74
589.45	22410.51
589.80	22775.05
590.15	23315.17
590.51	24458.21
590.86	25032.73
591.21	24948.63
591.56	24726.90
591.92	24535.21
592.27	24734.00
592.62	25101.27
592.97	24991.50
593.33	24783.97
593.68	24751.75
594.03	24812.92
594.38	24767.31
594.74	24268.70
595.09	24160.30
595.44	24162.75
595.79	24679.12
596.14	24925.96
596.50	24953.00
596.85	24890.47
597.20	24912.31
597.55	24726.08
597.90	24444.28
598.26	24187.06
598.61	24298.47
598.96	24084.39
599.31	24439.09
599.66	24687.31
600.01	24887.74
600.37	25011.43
600.72	24756.67
601.07	24756.94
601.42	24635.97
601.77	24511.18
602.12	24373.56
602.47	24404.96
602.83	24461.76
603.18	24780.97
603.53	25063.31
603.88	25170.90
604.23	25101.00
604.58	25270.02
604.93	25552.37
605.28	25702.83
605.63	25878.68
605.98	25961.42
606.33	25826.52
606.69	25899.98
607.04	26053.71
607.39	26071.46
607.74	26152.83
608.09	25935.75
608.44	26033.78
608.79	26036.78
609.14	26348.35
609.49	26173.59
609.84	25909.54
610.19	25917.18
610.54	25477.00
610.89	25798.13
611.24	26342.34
611.59	26532.39
611.94	26314.76
612.29	26107.51
612.64	26061.08
612.99	26052.62
613.34	26069.28
613.69	25999.92
614.04	25899.43
614.39	26052.07
614.74	26566.25
615.09	26729.00
615.44	26785.52
615.79	26597.93
616.14	25937.11
616.48	25829.53
616.83	25942.58
617.18	26140.27
617.53	26404.60
617.88	26565.16
618.23	26729.54
618.58	26873.99
618.93	26839.04
619.28	26840.41
619.63	27393.90
619.98	27674.61
620.32	27854.01
620.67	28005.84
621.02	27940.85
621.37	27555.28
621.72	27066.50
622.07	27009.16
622.42	27010.52
622.76	27068.96
623.11	27101.73
623.46	26984.04
623.81	26851.33
624.16	26691.31
624.51	26648.72
624.85	26389.85
625.20	26384.94
625.55	26337.15
625.90	26217.00
626.25	26546.04
626.59	26877.81
626.94	27111.56
627.29	26718.07
627.64	26002.38
627.99	25623.91
628.33	25255.55
628.68	25441.51
629.03	25878.13
629.38	26021.49
629.72	25840.45
630.07	25339.93
630.42	25356.04
630.77	25572.85
631.11	26079.93
631.46	25902.71
631.81	25720.58
632.16	25886.05
632.50	26010.84
632.85	26303.02
633.20	26132.63
633.54	25574.49
633.89	25099.36
634.24	24727.17
634.58	24800.90
634.93	25106.19
635.28	25418.57
635.63	25286.41
635.97	25027.82
636.32	25029.45
636.67	24904.94
637.01	24718.16
637.36	24848.41
637.70	24905.21
638.05	24557.06
638.40	24371.37
638.74	24389.12
639.09	24107.60
639.44	23882.59
639.78	23483.10
640.13	23317.35
640.47	23249.36
640.82	23327.18
641.17	23102.18
641.51	22939.16
641.86	23109.83
642.20	23055.49
642.55	23421.94
642.90	23448.97
643.24	23354.49
643.59	23394.36
643.93	23547.27
644.28	23376.33
644.62	23220.96
644.97	23341.38
645.31	23169.63
645.66	23148.60
646.00	22821.20
646.35	22846.32
646.70	22712.79
647.04	22907.21
647.39	22987.22
647.73	22992.41
648.08	23245.26
648.42	23473.54
648.77	23052.48
649.11	23086.34
649.46	22320.67
649.80	22057.72
650.14	22183.60
650.49	22634.70
650.83	22921.41
651.18	22976.84
651.52	22599.20
651.87	22609.03
652.21	22418.16
652.56	22691.22
652.90	22795.53
653.25	22977.94
653.59	22955.55
653.93	23031.73
654.28	23221.51
654.62	23448.42
654.97	23090.44
655.31	22650.53
655.65	22122.16
656.00	20471.77
656.34	19079.70
656.69	18775.50
657.03	19918.54
657.37	21247.27
657.72	22062.63
658.06	22807.55
658.40	23318.45
658.75	23528.43
659.09	23681.07
659.43	23698.82
659.78	23738.69
660.12	23770.36
660.46	23981.44
660.81	24179.14
661.15	24098.86
661.49	24297.37
661.84	24501.63
662.18	24745.20
662.52	24746.84
662.87	24859.06
663.21	24695.23
663.55	24734.55
663.89	24907.94
664.24	25009.25
664.58	25398.91
664.92	25587.32
665.26	26124.98
665.61	26081.84
665.95	26317.76
666.29	26223.56
666.63	26012.48
666.98	26143.28
667.32	26270.52
667.66	26209.63
668.00	26280.90
668.35	26432.72
668.69	26974.75
669.03	27353.49
669.37	27784.38
669.71	28135.81
670.06	28310.03
670.40	28900.66
670.74	29072.42
671.08	28749.11
671.42	28740.92
671.77	28432.63
672.11	28068.09
672.45	28215.82
672.79	28577.63
673.13	28762.22
673.47	28792.80
673.81	29099.45
674.16	29376.06
674.50	29664.96
674.84	29706.74
675.18	30230.20
675.52	30328.23
675.86	30784.79
676.20	30939.62
676.54	30986.86
676.88	30826.30
677.23	30711.34
677.57	31103.18
677.91	31219.78
678.25	31617.09
678.59	31896.16
678.93	32090.03
679.27	32348.08
679.61	32149.29
679.95	32165.67
680.29	32394.50
680.63	32605.03
680.97	32774.87
681.31	32981.85
681.65	33094.08
681.99	33303.52
682.33	33496.03
682.67	33796.95
683.01	34360.00
683.35	34690.13
683.69	34834.86
684.03	34742.01
684.37	34861.07
684.71	35101.64
685.05	35356.95
685.39	35640.66
685.73	35492.94
686.07	35233.25
686.41	34009.12
686.75	31365.60
687.09	27908.08
687.43	25598.79
687.77	26563.25
688.11	28787.61
688.45	30891.56
688.79	31676.62
689.13	31489.02
689.47	31211.59
689.80	31255.83
690.14	31127.49
690.48	31651.49
690.82	32203.35
691.16	32531.30
691.50	33573.58
691.84	34103.87
692.18	34350.99
692.52	35080.61
692.85	35367.60
693.19	35785.93
693.53	36082.75
693.87	35922.74
694.21	35472.73
694.55	35635.48
694.88	36302.84
695.22	36740.56
695.56	37023.73
695.90	37647.95
696.24	38109.97
696.58	38436.28
696.91	38795.90
697.25	39009.98
697.59	38786.62
697.93	38724.36
698.27	38282.00
698.60	38008.12
698.94	37997.47
699.28	37656.41
699.62	37194.66
699.95	37012.53
700.29	36662.19
700.63	36364.01
700.97	35865.39
701.30	36248.77
701.64	36267.62
701.98	36171.50
702.32	36471.05
702.65	37099.36
702.99	37739.42
703.33	38327.05
703.66	39245.36
704.00	39653.32
704.34	39678.71
704.68	40370.93
705.01	40380.76
705.35	40411.34
705.69	40370.65
706.02	40415.16
706.36	40542.95
706.70	40888.38
707.03	40384.58
707.37	40732.19
707.71	40401.24
708.04	40068.37
708.38	39992.46
708.72	39244.27
709.05	39463.27
709.39	39677.62
709.72	39491.66
710.06	39460.81
710.40	39283.04
710.73	39098.18
711.07	38920.69
711.40	38891.47
711.74	38645.17
712.08	38636.43
712.41	38490.07
712.75	38498.26
713.08	38385.76
713.42	38124.99
713.75	38323.50
714.09	38879.46
714.43	38699.78
714.76	38186.70
715.10	37597.16
715.43	38011.67
715.77	37678.26
716.10	36910.13
716.44	35735.14
716.77	34435.64
717.11	33419.57
717.44	32633.43
717.78	31882.23
718.11	31372.97
718.45	30592.28
718.78	30056.54
719.12	29666.06
719.45	29929.56
719.79	30174.77
720.12	30470.77
720.46	30455.21
720.79	31385.53
721.12	32904.30
721.46	34917.32
721.79	35731.59
722.13	35990.46
722.46	35526.25
722.80	35273.94
723.13	34199.99
723.46	33200.03
723.80	32273.26
724.13	31829.26
724.47	31985.18
724.80	31990.64
725.13	32062.18
725.47	32378.93
725.80	32775.42
726.14	33006.16
726.47	33118.11
726.80	33347.76
727.14	33458.62
727.47	33665.33
727.80	33280.86
728.14	33465.17
728.47	34081.75
728.80	33506.95
729.14	33035.37
729.47	32892.29
729.80	33561.02
730.14	33809.78
730.47	33713.66
730.80	33339.02
731.14	33194.57
731.47	33464.36
731.80	33339.29
732.14	33758.99
732.47	33739.60
732.80	34035.60
733.13	34397.96
733.47	34644.26
733.80	35087.17
734.13	35523.52
734.46	35726.41
734.80	35237.08
735.13	35355.59
735.46	35123.76
735.79	34829.39
736.13	34652.72
736.46	34166.95
736.79	34066.19
737.12	34154.38
737.45	34306.21
737.79	34340.61
738.12	34375.84
738.45	33932.38
738.78	33344.21
739.11	33166.72
739.45	33349.94
739.78	33712.30
740.11	34246.95
740.44	34157.12
740.77	34215.55
741.10	34276.72
741.44	34299.38
741.77	34267.16
742.10	34316.86
742.43	34574.63
742.76	34907.49
743.09	35602.98
743.42	35529.53
743.75	36106.51
744.08	35923.28
744.42	35630.83
744.75	35287.87
745.08	35101.64
745.41	35119.93
745.74	35105.46
746.07	34973.03
746.40	34838.41
746.73	34757.58
747.06	34993.78
747.39	35225.88
747.72	35375.52
748.05	35153.79
748.38	35326.64
748.71	35322.82
749.04	34955.28
749.37	34560.70
749.71	34278.08
750.04	33989.45
750.37	34349.62
750.70	33941.67
751.03	33677.07
751.36	33478.83
751.69	33308.98
752.02	33797.76
752.34	33674.61
752.67	33636.38
753.00	33648.67
753.33	33786.30
753.66	34044.61
753.99	34186.06
754.32	34150.83
754.65	34262.24
754.98	34230.84
755.31	34101.68
755.64	34146.19
755.97	34426.90
756.30	33983.72
756.63	33687.99
756.96	33460.26
757.29	33336.84
757.61	33300.52
757.94	33249.73
758.27	32603.39
758.60	32028.87
758.93	31031.37
759.26	27545.18
759.59	22088.57
759.92	15327.54
760.24	9688.53
760.57	6600.47
760.90	5504.94
761.23	6449.19
761.56	9678.70
761.89	13362.31
762.22	15585.86
762.54	15101.72
762.87	13265.10
763.20	12437.18
763.53	12445.64
763.86	12995.04
764.18	13908.44
764.51	15294.23
764.84	16842.50
765.17	18120.43
765.50	19788.29
765.82	21208.76
766.15	22409.69
766.48	23587.68
766.81	24925.42
767.13	26343.16
767.46	27337.11
767.79	28165.58
768.12	28599.47
768.44	28918.14
768.77	28832.12
769.10	28662.55
769.42	28371.47
769.75	28153.02
770.08	28136.09
770.41	28642.89
770.73	29077.33
771.06	28736.55
771.39	28851.24
771.71	28973.30
772.04	29302.61
772.37	29527.07
772.69	29497.58
773.02	29454.98
773.35	29323.36
773.67	29407.47
774.00	28961.01
774.33	28595.38
774.65	27858.11
774.98	27502.04
775.30	27518.42
775.63	27794.21
775.96	27826.98
776.28	28029.87
776.61	27969.25
776.93	27897.43
777.26	27464.63
777.59	26922.32
777.91	26744.56
778.24	26656.63
778.56	26547.41
778.89	26879.18
779.22	26929.97
779.54	27035.65
779.87	26790.43
780.19	26757.39
780.52	26472.86
780.84	26272.44
781.17	26127.99
781.49	25875.13
781.82	25635.38
782.14	25236.71
782.47	25133.22
782.79	24636.79
783.12	24170.40
783.44	23883.96
783.77	23464.26
784.09	23482.56
784.42	23929.01
784.74	23835.90
785.07	23495.12
785.39	23061.49
785.72	23376.88
786.04	23428.22
786.37	23577.04
786.69	23638.20
787.01	23480.64
787.34	23237.89
787.66	23067.50
787.99	22819.01
788.31	22909.67
788.64	22905.03
788.96	23170.17
789.28	23169.08
789.61	23218.23
789.93	23216.87
790.26	23092.35
790.58	23597.24
790.90	23622.91
791.23	23506.04
791.55	23247.45
791.87	23210.04
792.20	22918.41
792.52	23187.10
792.85	23113.65
793.17	22802.63
793.49	22486.97
793.82	22430.17
794.14	22454.48
794.46	22202.44
794.78	22162.03
795.11	22068.91
795.43	22094.03
795.75	22154.11
796.08	21920.37
796.40	22419.52
796.72	22442.19
797.05	22742.56
797.37	22924.69
797.69	23318.45
798.01	23421.12
798.34	22891.65
798.66	23136.86
798.98	23210.31
799.30	22890.28
799.63	22657.91
799.95	22378.29
800.27	22144.82
800.59	22028.22
800.91	22120.25
801.24	21964.60
801.56	22165.30
801.88	22083.66
802.20	22275.35
802.53	21937.30
802.85	21932.93
803.17	21623.27
803.49	22035.05
803.81	21929.92
804.13	21773.73
804.46	21522.51
804.78	21274.57
805.10	20893.38
805.42	20578.54
805.74	20662.09
806.06	20213.72
806.38	20073.92
806.71	19777.10
807.03	19305.79
807.35	19217.59
807.67	19090.89
807.99	19220.32
808.31	19046.38
808.63	18972.38
808.95	18968.01
809.27	19038.46
809.59	18589.55
809.91	18589.82
810.24	18724.99
810.56	18638.43
810.88	18846.23
811.20	18703.69
811.52	18580.54
811.84	18389.39
812.16	18430.90
812.48	18158.93
812.80	17663.32
813.12	17521.06
813.44	17139.86
813.76	16813.82
814.08	16784.61
814.40	16451.20
814.72	16101.95
815.04	15525.24
815.36	15235.80
815.68	15186.37
816.00	14798.08
816.32	14796.71
816.64	14342.61
816.96	14411.97
817.28	14914.95
817.60	14967.10
817.92	14798.08
818.24	14416.61
818.55	14471.77
818.87	14768.04
819.19	14855.97
819.51	14938.43
819.83	14802.17
820.15	14987.04
820.47	15472.54
820.79	16420.61
821.11	16217.73
821.43	16150.55
821.75	15698.09
822.06	15515.96
822.38	14727.63
822.70	13739.14
823.02	12625.59
823.34	12301.74
823.66	13346.48
823.98	14561.88
824.29	14960.55
824.61	15266.11
824.93	15246.99
825.25	15258.19
825.57	14789.88
825.88	14691.31
826.20	14510.54
826.52	14843.13
826.84	14908.12
827.16	14735.54
827.47	14239.66
827.79	13704.73
828.11	13595.24
828.43	13811.23
828.75	13842.36
829.06	13895.06
829.38	13891.51
829.70	14207.44
830.02	14341.52
830.33	14617.58
830.65	14448.56
830.97	14717.25
831.28	14654.99
831.60	14696.77
831.92	14563.24
832.24	14270.25
832.55	14212.08
832.87	14221.37
833.19	14079.92
833.50	14018.48
833.82	14068.18
834.14	14067.91
834.45	14114.87
834.77	14201.98
835.09	14360.36
835.40	14232.29
835.72	14093.03
836.04	13877.86
836.35	13852.19
836.67	13803.58
836.99	13875.12
837.30	13771.36
837.62	13812.87
837.93	13620.08
838.25	13523.69
838.57	13392.90
838.88	13248.17
839.20	13267.56
839.51	13492.02
839.83	13339.65
840.15	13253.91
840.46	13404.37
840.78	13249.54
841.09	13217.04
841.41	13095.26
841.72	13273.02
842.04	13012.79
842.35	13225.51
842.67	13102.63
842.98	13017.71
843.30	12991.49
843.62	12877.08
843.93	12722.53
844.25	12650.44
844.56	12556.51
844.88	12428.17
845.19	12329.32
845.51	12469.40
845.82	12418.06
846.13	12476.50
846.45	12292.73
846.76	12167.66
847.08	12011.75
847.39	12056.53
847.71	12250.95
848.02	12268.43
848.34	12186.78
848.65	12134.62
848.97	12022.12
849.28	11889.41
849.59	11212.49
849.91	10682.48
850.22	10408.60
850.54	10920.86
850.85	11237.61
851.16	11229.42
851.48	11116.37
851.79	10826.11
852.10	10884.54
852.42	10992.68
852.73	10855.87
853.05	10744.46
853.36	10645.89
853.67	10051.98
853.99	9147.32
854.30	8384.93
854.61	8238.02
854.93	9081.51
855.24	9907.53
855.55	10270.70
855.87	10266.88
856.18	10361.36
856.49	10388.39
856.80	10331.87
857.12	10390.57
857.43	10263.60
857.74	10248.85
858.06	10144.00
858.37	9994.36
858.68	9918.18
858.99	9949.03
859.31	9801.31
859.62	9746.69
859.93	9746.69
860.24	9880.49
860.56	10032.86
860.87	10032.86
861.18	10017.57
861.49	9811.14
861.80	9893.60
862.12	9893.05
862.43	9865.48
862.74	9832.43
863.05	9830.80
863.36	9777.00
863.68	9694.54
863.99	9565.93
864.30	9494.11
864.61	9254.63
864.92	9008.88
865.23	8815.28
865.55	8636.69
865.86	8099.85
866.17	7589.77
866.48	7201.75
866.79	7564.65
867.10	8324.31
867.41	8697.31
867.72	8980.21
868.04	8970.65
868.35	8968.19
868.66	8806.54
868.97	8700.04
869.28	8617.58
869.59	8668.10
869.90	8635.06
870.21	8716.97
870.52	8653.62
870.83	8576.89
871.14	8434.90
871.45	8469.85
871.76	8461.93
872.07	8483.51
872.38	8502.07
872.69	8460.02
873.00	8406.23
873.31	8284.72
873.62	8184.78
873.93	8060.81
874.24	8138.08
874.55	8116.51
874.86	8069.27
875.17	7981.62
875.48	7776.82
875.79	7872.66
876.10	7831.98
876.41	7767.26
876.72	7645.75
877.03	7599.06
877.34	7572.84
877.65	7449.96
877.96	7452.15
878.27	7395.90
878.58	7277.66
878.89	7167.34
879.20	7156.97
879.51	7039.01
879.81	7120.92
880.12	7179.63
880.43	6957.63
880.74	6836.39
881.05	6912.85
881.36	6996.68
881.67	7107.00
881.98	7057.03
882.28	6944.80
882.59	7050.47
882.90	7041.19
883.21	7120.65
883.52	7110.55
883.83	7111.09
884.13	7217.59
884.44	7204.75
884.75	7393.71
885.06	7506.49
885.37	7541.44
885.68	7565.74
885.98	7387.71
886.29	7288.86
886.60	7191.37
886.91	7237.52
887.21	7222.78
887.52	7384.16
887.83	7457.34
888.14	7424.30
888.44	7420.20
888.75	7352.21
889.06	7347.84
889.37	7296.78
889.67	7146.59
889.98	7180.72
890.29	7171.71
890.60	7140.31
890.90	7102.63
891.21	7009.24
891.52	6974.84
891.82	6949.71
892.13	6942.34
892.44	6818.64
892.74	6789.43
893.05	6647.16
893.36	6724.16
893.66	6805.81
893.97	6847.04
894.28	6749.83
894.58	6731.26
894.89	6432.53
895.20	6394.85
895.50	6368.36
895.81	6245.76
896.11	6122.88
896.42	5987.71
896.73	5833.98
897.03	5912.90
897.34	5832.07
897.64	5880.40
897.95	5999.18
898.26	5798.21
898.56	5274.75
898.87	4937.79
899.17	5025.72
899.48	5370.05
899.78	5600.51
900.09	5314.34
900.39	5217.13
900.70	5231.06
901.00	5225.05
901.31	5114.73
901.62	5220.14
901.92	5257.82
902.23	5221.77
902.53	5297.69
902.84	5423.57
903.14	5660.59
903.44	5902.79
903.75	5973.52
904.05	5889.41
904.36	5900.06
904.66	5782.92
904.97	5772.54
905.27	5666.32
905.58	5544.53
905.88	5442.41
906.19	5238.98
906.49	5043.46
906.79	4967.28
907.10	4840.31
907.40	4698.86
907.71	4668.55
908.01	4702.68
908.31	4546.22
908.62	4622.13
908.92	4423.07
909.23	4445.46
909.53	4358.35
909.83	4414.33
910.14	4344.70
910.44	4333.77
910.74	4369.82
911.05	4474.13
911.35	4456.93
911.65	4347.70
911.96	4335.69
912.26	4374.19
912.56	4326.40
912.87	4062.62
913.17	3772.36
913.47	3741.78
913.78	3863.29
914.08	4049.52
914.38	4166.11
914.69	4050.61
914.99	3770.99
915.29	3569.75
915.59	3597.05
915.90	3779.18
916.20	3928.28
916.50	3899.61
916.80	3722.11
917.11	3414.65
917.41	3348.57
917.71	3389.25
918.01	3477.18
918.31	3567.02
918.62	3571.11
918.92	3599.78
919.22	3579.30
919.52	3483.19
919.82	3581.21
920.13	3636.10
920.43	3642.93
920.73	3542.71
921.03	3429.12
921.33	3357.85
921.63	3372.05
921.94	3411.92
922.24	3395.81
922.54	3341.74
922.84	3245.35
923.14	3185.27
923.44	3230.60
923.74	3198.93
924.05	3196.47
924.35	3165.89
924.65	3147.86
924.95	3130.66
925.25	3185.82
925.55	3084.24
925.85	3033.45
926.15	3050.11
926.45	3073.59
926.75	3038.91
927.05	2875.08
927.35	2746.46
927.65	2574.98
927.95	2477.77
928.25	2337.42
928.56	2311.20
928.86	2235.29
929.16	2148.18
929.46	2028.31
929.76	1902.97
930.06	1855.73
930.36	1719.47
930.66	1663.22
930.96	1538.16
931.26	1376.51
931.55	1294.04
931.85	1117.37
932.15	1083.24
932.45	1048.01
932.75	1012.79
933.05	963.09
933.35	866.15
933.65	753.38
933.95	626.68
934.25	634.05
934.55	708.60
934.85	764.58
935.15	768.94
935.45	722.25
935.75	716.52
936.04	663.00
936.34	659.99
936.64	570.15
936.94	540.94
937.24	485.23
937.54	463.93
937.84	509.53
938.14	491.24
938.43	610.29
938.73	655.62
939.03	726.62
939.33	707.50
939.63	689.21
939.92	656.17
940.22	628.86
940.52	581.90
940.82	505.17
941.12	493.42
941.42	471.58
941.71	477.31
942.01	434.44
942.31	425.98
942.61	383.93
942.90	357.44
943.20	381.20
943.50	368.36
943.80	274.97
944.09	255.59
944.39	311.29
944.69	332.86
944.99	368.36
945.28	345.15
945.58	335.59
945.88	320.03
946.17	324.67
946.47	345.70
946.77	376.01
947.06	400.31
947.36	353.34
947.66	321.67
947.96	329.86
948.25	340.24
948.55	404.68
948.84	374.10
949.14	328.77
949.44	244.39
949.73	255.31
950.03	302.83
950.33	357.98
950.62	462.57
950.92	465.30
951.21	433.62
951.51	380.10
951.81	355.25
952.10	300.10
952.40	350.89
952.69	381.20
952.99	411.78
953.29	502.71
953.58	460.93
953.88	460.11
954.17	445.36
954.47	422.15
954.76	416.69
955.06	407.41
955.35	414.78
955.65	417.24
955.94	411.51
956.24	394.30
956.53	430.62
956.83	436.90
957.12	523.73
957.42	519.09
957.71	526.74
958.01	539.84
958.30	484.69
958.60	478.41
958.89	465.57
959.19	430.89
959.48	454.65
959.78	490.15
960.07	550.77
960.37	547.22
960.66	564.42
960.95	570.70
961.25	582.72
961.54	581.35
961.84	525.37
962.13	521.00
962.42	508.44
962.72	522.37
963.01	525.37
963.31	535.48
963.60	519.36
963.89	478.13
964.19	494.52
964.48	487.14
964.77	496.97
965.07	533.29
965.36	514.18
965.65	479.50
965.95	465.57
966.24	480.86
966.53	474.58
966.83	527.28
967.12	525.65
967.41	566.88
967.71	591.73
968.00	605.65
968.29	590.63
968.58	635.14
968.88	622.86
969.17	552.95
969.46	551.04
969.76	570.43
970.05	567.42
970.34	544.76
970.63	569.61
970.92	569.06
971.22	559.78
971.51	521.00
971.80	555.96
972.09	535.20
972.39	500.80
972.68	435.53
972.97	438.27
973.26	395.67
973.55	433.90
973.84	394.85
974.14	394.03
974.43	408.77
974.72	388.57
975.01	431.98
975.30	407.14
975.59	401.95
975.89	378.46
976.18	353.62
976.47	379.01
976.76	380.10
977.05	398.67
977.34	408.77
977.63	404.41
977.92	396.76
978.21	363.72
978.51	361.53
978.80	353.89
979.09	332.86
979.38	341.33
979.67	331.50
979.96	309.93
980.25	319.76
980.54	345.42
980.83	311.84
981.12	341.87
981.41	353.89
981.70	324.40
981.99	335.59
982.28	309.65
982.57	297.91
982.86	316.75
983.15	311.29
983.44	332.04
983.73	341.33
984.02	322.49
984.31	336.14
984.60	317.84
984.89	300.64
985.18	293.00
985.47	277.43
985.76	303.65
986.05	295.73
986.34	270.33
986.63	305.28
986.92	268.42
987.21	268.15
987.49	226.10
987.78	261.32
988.07	228.28
988.36	222.00
988.65	254.49
988.94	241.93
989.23	213.26
989.52	238.93
989.80	227.46
990.09	187.59
990.38	209.99
990.67	200.43
990.96	183.50
991.25	186.23
991.54	163.84
991.82	211.90
992.11	175.31
992.40	146.36
992.69	171.21
992.98	115.51
993.26	133.25
993.55	119.33
993.84	140.90
994.13	99.67
994.42	126.15
994.70	107.86
994.99	94.21
995.28	116.87
995.57	72.09
995.85	69.08
996.14	89.29
996.43	74.27
996.72	72.09
997.00	77.28
997.29	64.44
997.58	65.54
997.86	55.98
998.15	50.24
998.44	61.17
998.73	51.88
999.01	54.61
999.30	42.60
999.59	61.17
999.87	45.87
1000.16	40.41
1000.45	53.79
1000.73	31.40
1001.02	20.75
1001.30	31.68
1001.59	43.96
1001.88	18.02
1002.16	7.37
1002.45	6.55
1002.74	19.11
1003.02	10.10
1003.31	18.84
1003.59	13.11
1003.88	7.10
1004.17	6.01
1004.45	3.00
1004.74	6.28
1005.02	5.46
1005.31	4.64
1005.59	1.64
1005.88	11.47
1006.16	1.09
1006.45	3.55
1006.73	0.00
1007.02	1.91
1007.31	0.00
1007.59	0.55
1007.88	0.82
1008.16	3.00
1008.45	1.09
1008.73	1.09
1009.02	0.00
1009.30	1.09
1009.58	0.82
1009.87	0.00
1010.15	0.27
1010.44	0.00
1010.72	0.00
1011.01	4.10
1011.29	1.37
1011.58	0.00
1011.86	0.00
1012.14	0.00
1012.43	0.00
1012.71	0.00
1013.00	0.00
1013.28	0.00
1013.56	0.00
1013.85	0.00
1014.13	0.00
1014.42	0.00
1014.70	0.00
1014.98	0.00
1015.27	0.00
1015.55	0.00
1015.83	0.00
1016.12	0.00
1016.40	0.00
1016.68	0.00
1016.97	0.00
1017.25	0.00
1017.53	0.00
1017.82	0.00
1018.10	0.00
1018.38	0.00
1018.67	0.00
1018.95	0.00
1019.23	0.00
1019.51	0.00
1019.80	0.00
1020.08	0.00
1020.36	0.00
1020.64	0.00
1020.93	0.00
1021.21	0.00
1021.49	0.00
1021.77	0.00
1022.06	0.00
1022.34	0.00
1022.62	0.00
1022.90	0.00
1023.18	0.00
1023.47	0.00
1023.75	0.00
1024.03	0.00
1024.31	0.00
1024.59	0.00
1024.87	0.00
1025.16	0.00
1025.44	0.00
>>>>>End Processed Spectral Data<<<<<
