SpectraSuite Data File
++++++++++++++++++++++++++++++++++++
Date: Mon Apr 24 14:00:58 ART 2023
User: guille
Dark Spectrum Present: No
Reference Spectrum Present: No
Number of Sampled Component Spectra: 1
Spectrometers: USB2+H13674
Integration Time (usec): 2000 (USB2+H13674)
Spectra Averaged: 10 (USB2+H13674)
Boxcar Smoothing: 0 (USB2+H13674)
Correct for Electrical Dark: No (USB2+H13674)
Strobe/Lamp Enabled: No (USB2+H13674)
Correct for Detector Non-linearity: No (USB2+H13674)
Correct for Stray Light: No (USB2+H13674)
Number of Pixels in Processed Spectrum: 2048
>>>>>Begin Processed Spectral Data<<<<<
339.87	0.00
340.25	0.00
340.63	0.00
341.02	0.00
341.40	0.00
341.78	0.00
342.16	0.00
342.55	0.00
342.93	0.00
343.31	0.00
343.69	0.00
344.08	0.00
344.46	0.00
344.84	0.00
345.22	0.00
345.60	0.00
345.99	0.00
346.37	0.00
346.75	0.00
347.13	0.00
347.51	0.00
347.90	0.00
348.28	0.00
348.66	0.00
349.04	0.00
349.42	0.00
349.80	0.00
350.19	0.00
350.57	0.00
350.95	0.00
351.33	0.00
351.71	0.00
352.09	0.00
352.47	0.00
352.86	0.00
353.24	0.00
353.62	0.00
354.00	0.00
354.38	0.00
354.76	0.00
355.14	0.00
355.52	0.00
355.90	0.00
356.28	0.00
356.67	0.00
357.05	0.00
357.43	0.00
357.81	0.00
358.19	0.00
358.57	0.00
358.95	0.00
359.33	0.00
359.71	0.00
360.09	0.00
360.47	0.00
360.85	0.00
361.23	0.00
361.61	0.00
361.99	0.00
362.37	0.00
362.75	0.00
363.13	0.00
363.51	0.00
363.89	0.00
364.27	0.00
364.65	0.00
365.03	0.00
365.41	0.00
365.79	0.00
366.17	0.00
366.55	0.00
366.93	0.00
367.31	0.00
367.69	0.00
368.07	0.00
368.45	0.00
368.83	0.00
369.21	0.00
369.59	0.00
369.97	0.00
370.35	0.00
370.73	0.00
371.11	0.00
371.49	0.00
371.87	0.00
372.25	0.00
372.62	0.00
373.00	0.00
373.38	0.00
373.76	0.00
374.14	0.00
374.52	0.00
374.90	0.00
375.28	0.00
375.66	0.00
376.03	0.00
376.41	0.00
376.79	0.00
377.17	0.00
377.55	0.00
377.93	0.00
378.31	0.00
378.68	0.00
379.06	0.00
379.44	0.00
379.82	0.00
380.20	0.00
380.58	0.00
380.95	0.00
381.33	0.00
381.71	0.00
382.09	0.00
382.47	0.00
382.85	0.00
383.22	0.00
383.60	0.00
383.98	0.00
384.36	0.55
384.73	0.00
385.11	16.93
385.49	3.82
385.87	19.11
386.25	14.47
386.62	33.31
387.00	32.49
387.38	53.52
387.76	36.86
388.13	70.18
388.51	72.36
388.89	79.73
389.26	151.00
389.64	212.17
390.02	234.01
390.40	264.87
390.77	291.90
391.15	355.80
391.53	442.63
391.90	375.19
392.28	342.97
392.66	288.90
393.04	203.16
393.41	111.68
393.79	195.51
394.17	322.21
394.54	448.91
394.92	564.15
395.30	634.05
395.67	680.20
396.05	640.06
396.42	475.95
396.80	323.31
397.18	331.77
397.55	550.49
397.93	831.75
398.31	1005.14
398.68	1113.55
399.06	1171.44
399.44	1291.31
399.81	1344.29
400.19	1365.31
400.56	1400.81
400.94	1473.72
401.32	1549.90
401.69	1650.66
402.07	1682.06
402.44	1760.16
402.82	1754.70
403.19	1709.37
403.57	1760.43
403.95	1865.84
404.32	1842.90
404.70	1778.46
405.07	1878.12
405.45	1975.61
405.82	2017.11
406.20	1943.39
406.57	2021.75
406.95	2032.13
407.32	2082.37
407.70	2153.64
408.07	2249.22
408.45	2333.05
408.82	2448.01
409.20	2529.38
409.57	2466.57
409.95	2243.75
410.32	2253.58
410.70	2332.50
411.07	2617.85
411.45	2805.99
411.82	2850.23
412.20	2836.30
412.57	2835.75
412.95	2753.02
413.32	2766.40
413.70	2925.59
414.07	2926.14
414.45	3020.89
414.82	2976.65
415.19	2950.71
415.57	2963.55
415.94	3136.94
416.32	3191.01
416.69	3264.46
417.07	3132.57
417.44	3103.08
417.81	3043.01
418.19	3127.66
418.56	3138.85
418.94	3241.52
419.31	3394.44
419.68	3350.48
420.06	3260.64
420.43	3374.23
420.80	3529.88
421.18	3783.83
421.55	3800.21
421.93	3760.89
422.30	3649.48
422.67	3474.99
423.05	3574.12
423.42	3761.44
423.79	3866.02
424.17	3971.97
424.54	4132.25
424.91	4082.28
425.29	4103.86
425.66	4160.11
426.03	4160.38
426.40	4409.96
426.78	4400.68
427.15	4176.22
427.52	4246.39
427.90	4414.06
428.27	4738.73
428.64	4518.37
429.02	4492.42
429.39	4517.55
429.76	4166.39
430.13	3807.04
430.51	3556.09
430.88	3547.90
431.25	4131.44
431.62	5204.03
432.00	5569.38
432.37	5524.60
432.74	5446.78
433.11	5699.09
433.48	5973.24
433.86	5343.56
434.23	5085.24
434.60	5485.83
434.97	5721.21
435.35	5911.53
435.72	5947.85
436.09	6475.95
436.46	6437.99
436.83	6453.29
437.21	6203.98
437.58	6071.82
437.95	5979.80
438.32	5595.60
438.69	5467.26
439.06	5812.14
439.44	6077.28
439.81	6170.94
440.18	6152.37
440.55	6092.57
440.92	6247.40
441.29	6485.23
441.66	6690.03
442.03	6814.82
442.41	6922.68
442.78	6958.45
443.15	6825.74
443.52	6901.93
443.89	6863.43
444.26	7034.36
444.63	7137.85
445.00	7383.61
445.37	7103.17
445.74	6833.94
446.12	6774.41
446.49	7092.25
446.86	7387.98
447.23	7732.04
447.60	8061.08
447.97	7909.53
448.34	7896.15
448.71	8020.39
449.08	8159.11
449.45	8314.75
449.82	8504.26
450.19	8898.29
450.56	9371.78
450.93	9429.12
451.30	9328.09
451.67	9405.91
452.04	9533.43
452.41	9455.61
452.78	9092.16
453.15	8863.06
453.52	9324.54
453.89	9802.40
454.26	10200.80
454.63	10283.26
455.00	10216.63
455.37	10367.36
455.74	10702.14
456.11	11341.38
456.48	11297.69
456.85	11597.24
457.22	11727.22
457.59	12008.20
457.96	11856.92
458.33	11566.11
458.70	11747.69
459.07	12032.23
459.43	12097.76
459.80	12158.65
460.17	12301.19
460.54	12923.50
460.91	12972.38
461.28	13241.35
461.65	13424.03
462.02	13566.29
462.39	13634.28
462.76	13864.48
463.12	13954.31
463.49	13590.05
463.86	13603.97
464.23	13438.77
464.60	13017.98
464.97	13234.79
465.34	13563.83
465.70	14175.49
466.07	13975.61
466.44	13591.96
466.81	13284.76
467.18	13333.37
467.55	13901.07
467.91	13892.60
468.28	13956.50
468.65	14152.56
469.02	14092.48
469.39	14367.46
469.75	14281.71
470.12	13991.18
470.49	13667.60
470.86	14049.61
471.23	14178.22
471.59	14659.36
471.96	15218.59
472.33	15746.42
472.70	15200.84
473.06	15258.46
473.43	14818.28
473.80	15381.61
474.17	15680.61
474.53	16213.09
474.90	16172.13
475.27	16047.61
475.64	16034.78
476.00	15868.75
476.37	15829.98
476.74	16219.09
477.11	16477.68
477.47	17050.84
477.84	17434.22
478.21	17524.88
478.57	17077.33
478.94	17160.89
479.31	17617.17
479.67	18146.91
480.04	18478.96
480.41	17984.72
480.77	18407.14
481.14	18345.98
481.51	18935.79
481.87	19104.27
482.24	19257.19
482.61	19183.73
482.97	19251.18
483.34	19503.76
483.71	19381.16
484.07	19423.48
484.44	19604.52
484.80	20062.99
485.17	19481.10
485.54	18765.13
485.90	16700.50
486.27	16298.28
486.63	17070.78
487.00	18330.69
487.37	19277.12
487.73	20036.51
488.10	20690.76
488.46	20570.34
488.83	20207.99
489.19	20809.82
489.56	21685.80
489.93	22720.44
490.29	22476.05
490.66	22166.94
491.02	22175.13
491.39	22162.03
491.75	21181.73
492.12	20877.27
492.48	21146.23
492.85	22845.77
493.21	22959.09
493.58	22431.54
493.94	22373.65
494.31	23078.97
494.67	23752.61
495.04	23569.66
495.40	23171.26
495.77	22674.02
496.13	23022.17
496.50	23565.57
496.86	23326.91
497.23	23624.55
497.59	23390.26
497.96	22594.01
498.32	21731.68
498.69	21965.42
499.05	22664.19
499.41	23298.78
499.78	22834.31
500.14	22186.06
500.51	21569.48
500.87	21741.78
501.24	21682.53
501.60	21300.24
501.96	21503.67
502.33	21732.50
502.69	22051.44
503.06	22571.89
503.42	22453.93
503.78	21512.41
504.15	21529.89
504.51	21834.62
504.88	22316.58
505.24	22445.19
505.60	22887.83
505.97	23566.66
506.33	22906.94
506.69	22547.86
507.06	22342.25
507.42	22347.16
507.78	21565.11
508.15	21732.50
508.51	22070.55
508.87	22695.32
509.24	23165.26
509.60	22345.80
509.96	22298.01
510.33	22284.63
510.69	22550.05
511.05	22621.86
511.41	23171.54
511.78	23434.22
512.14	22861.07
512.50	22573.80
512.87	22299.92
513.23	22390.03
513.59	22311.39
513.95	21839.27
514.32	22018.12
514.68	22123.80
515.04	22588.28
515.40	22896.84
515.77	23305.61
516.13	22847.14
516.49	20753.30
516.85	19078.60
517.22	19174.99
517.58	21178.45
517.94	21494.93
518.30	21011.89
518.66	20902.93
519.03	22111.24
519.39	22893.01
519.75	23620.45
520.11	23939.12
520.47	23800.67
520.83	23987.72
521.20	24012.57
521.56	24640.07
521.92	25206.95
522.28	24507.09
522.64	24172.86
523.00	23892.15
523.37	24798.17
523.73	25691.90
524.09	26315.58
524.45	26624.96
524.81	26308.75
525.17	25801.13
525.53	26633.15
525.89	26496.62
526.26	24919.14
526.62	23664.14
526.98	23816.51
527.34	24608.12
527.70	26371.28
528.06	26686.94
528.42	27489.47
528.78	28150.56
529.14	28914.04
529.50	28061.27
529.86	27579.59
530.22	28109.87
530.59	28959.10
530.95	29623.19
531.31	29446.24
531.67	29389.72
532.03	28811.10
532.39	27656.59
532.75	27017.90
533.11	27612.35
533.47	28560.15
533.83	28948.72
534.19	29024.09
534.55	28897.11
534.91	29449.52
535.27	30055.72
535.63	30782.34
535.99	30799.54
536.35	29759.44
536.71	28420.07
537.07	28354.54
537.43	29410.20
537.79	29959.60
538.15	29963.42
538.51	30252.87
538.87	29912.63
539.22	29317.08
539.58	28851.78
539.94	28924.15
540.30	28316.04
540.66	28127.35
541.02	28543.77
541.38	29326.91
541.74	29802.31
542.10	29631.65
542.46	29680.80
542.82	29323.09
543.18	29057.67
543.53	29457.71
543.89	30223.38
544.25	30140.91
544.61	29832.08
544.97	29974.34
545.33	29895.97
545.69	30212.73
546.05	29553.28
546.40	29734.05
546.76	29802.31
547.12	29708.65
547.48	29112.56
547.84	28719.89
548.20	29275.85
548.55	29685.44
548.91	30022.95
549.27	29773.64
549.63	29680.80
549.99	29501.13
550.34	29219.05
550.70	29257.83
551.06	29093.99
551.42	29226.70
551.78	29598.88
552.13	29544.82
552.49	28700.51
552.85	28861.34
553.21	28648.90
553.57	28802.63
553.92	29169.90
554.28	29236.53
554.64	29461.53
555.00	29690.90
555.35	29251.00
555.71	29024.63
556.07	28586.37
556.42	28226.20
556.78	27799.13
557.14	27953.41
557.50	28055.53
557.85	28229.47
558.21	28083.11
558.57	26915.77
558.92	26667.56
559.28	27159.07
559.64	27071.42
559.99	27250.55
560.35	27644.57
560.71	28646.71
561.06	28289.00
561.42	27340.38
561.78	27296.42
562.13	27254.10
562.49	27768.27
562.85	27745.06
563.20	27801.59
563.56	27369.87
563.92	27142.69
564.27	27592.15
564.63	27448.24
564.98	27308.16
565.34	26937.34
565.70	26476.14
566.05	26139.73
566.41	26585.09
566.76	27189.11
567.12	27242.35
567.48	27221.87
567.83	26963.83
568.19	26387.12
568.54	26110.78
568.90	26121.43
569.25	26429.45
569.61	26358.72
569.97	26151.20
570.32	25794.03
570.68	24978.67
571.03	24792.71
571.39	25258.55
571.74	26037.33
572.10	26243.76
572.45	26437.37
572.81	26296.74
573.16	26276.26
573.52	26073.92
573.87	26091.12
574.23	25918.27
574.58	25512.50
574.94	24948.36
575.29	24733.18
575.65	24509.00
576.00	24629.42
576.36	24846.23
576.71	24841.31
577.07	24909.03
577.42	24727.45
577.78	24152.11
578.13	23867.85
578.48	23786.75
578.84	23976.53
579.19	24039.88
579.55	24050.80
579.90	23989.91
580.26	23980.62
580.61	23824.70
580.96	23786.75
581.32	23697.73
581.67	23866.75
582.03	23893.24
582.38	23972.43
582.73	23935.02
583.09	23584.14
583.44	23664.42
583.79	23497.85
584.15	23685.99
584.50	23405.83
584.86	23105.18
585.21	22566.70
585.56	22073.55
585.92	22045.15
586.27	22278.90
586.62	22658.73
586.98	22637.43
587.33	22651.35
587.68	22229.75
588.04	22022.49
588.39	21295.60
588.74	19738.60
589.09	19137.59
589.45	19102.63
589.80	20143.82
590.15	20928.33
590.51	21422.03
590.86	21672.42
591.21	21240.71
591.56	21303.24
591.92	21173.81
592.27	21459.16
592.62	21483.74
592.97	21292.59
593.33	21218.05
593.68	21511.32
594.03	21264.47
594.38	21071.41
594.74	20763.67
595.09	20986.49
595.44	21097.35
595.79	21416.56
596.14	21527.70
596.50	21495.21
596.85	21541.90
597.20	21533.16
597.55	21325.91
597.90	21174.36
598.26	21107.46
598.61	21207.67
598.96	21401.82
599.31	21744.51
599.66	21643.48
600.01	21469.27
600.37	21387.35
600.72	21275.39
601.07	21251.64
601.42	21334.65
601.77	21233.89
602.12	21124.93
602.47	21584.77
602.83	21800.22
603.18	21946.03
603.53	21989.18
603.88	22286.54
604.23	22180.87
604.58	22337.33
604.93	22241.21
605.28	22213.09
605.63	22364.09
605.98	22325.59
606.33	22162.03
606.69	22489.15
607.04	22548.14
607.39	22506.36
607.74	22358.63
608.09	22380.48
608.44	22532.84
608.79	22415.70
609.14	22633.60
609.49	22592.10
609.84	22154.38
610.19	22307.57
610.54	22246.95
610.89	22831.85
611.24	22754.03
611.59	22725.08
611.94	22493.25
612.29	22559.33
612.64	22734.64
612.99	22788.16
613.34	22296.10
613.69	22406.14
614.04	22605.75
614.39	22877.72
614.74	23056.03
615.09	22902.30
615.44	22964.28
615.79	22386.21
616.14	22129.80
616.48	21976.89
616.83	22537.49
617.18	22788.43
617.53	23211.68
617.88	23433.95
618.23	23535.26
618.58	23418.93
618.93	23294.69
619.28	23562.84
619.63	23699.91
619.98	23867.03
620.32	23805.59
620.67	23975.98
621.02	23710.84
621.37	23520.24
621.72	23470.81
622.07	23474.64
622.42	23452.52
622.76	23098.08
623.11	23232.43
623.46	23257.83
623.81	23278.85
624.16	22922.23
624.51	22938.07
624.85	22584.73
625.20	22547.86
625.55	22417.89
625.90	22694.22
626.25	23079.52
626.59	23274.76
626.94	23385.35
627.29	22513.18
627.64	21703.28
627.99	21947.67
628.33	22302.65
628.68	22385.94
629.03	22390.03
629.38	22201.35
629.72	21891.15
630.07	21725.13
630.42	22070.00
630.77	22476.59
631.11	21713.66
631.46	21046.84
631.81	21403.18
632.16	22201.07
632.50	22344.43
632.85	22264.42
633.20	21976.89
633.54	21677.89
633.89	21757.07
634.24	21678.70
634.58	21969.79
634.93	21902.62
635.28	21958.05
635.63	21568.66
635.97	21423.12
636.32	21405.64
636.67	21577.13
637.01	21709.56
637.36	21903.98
637.70	21764.72
638.05	21606.07
638.40	21601.16
638.74	21866.03
639.09	21456.98
639.44	21020.35
639.78	20791.80
640.13	21048.75
640.47	20978.85
640.82	20687.49
641.17	20511.36
641.51	20552.87
641.86	20680.93
642.20	20850.51
642.55	20992.77
642.90	20789.07
643.24	20596.29
643.59	20452.11
643.93	20706.88
644.28	20703.33
644.62	20393.13
644.97	20409.24
645.31	20221.37
645.66	20345.89
646.00	19992.00
646.35	20217.82
646.70	20026.40
647.04	20121.16
647.39	20133.99
647.73	19870.49
648.08	20024.49
648.42	20162.39
648.77	19885.78
649.11	19236.98
649.46	18891.01
649.80	19323.27
650.14	20206.90
650.49	20303.84
650.83	20467.95
651.18	20149.01
651.52	19855.47
651.87	20036.23
652.21	20186.96
652.56	20360.09
652.90	20186.96
653.25	20297.83
653.59	20288.54
653.93	20489.24
654.28	20050.71
654.62	19988.17
654.97	19698.18
655.31	19275.48
655.65	18055.71
656.00	15990.54
656.34	16144.82
656.69	17400.36
657.03	19256.64
657.37	19879.22
657.72	20201.16
658.06	20395.31
658.40	20668.92
658.75	20627.41
659.09	20614.03
659.43	20585.64
659.78	20833.85
660.12	21057.21
660.46	21201.66
660.81	21317.44
661.15	21423.94
661.49	21511.32
661.84	21586.96
662.18	21921.18
662.52	21825.34
662.87	21751.34
663.21	21618.09
663.55	21716.66
663.89	21872.31
664.24	21937.57
664.58	22339.52
664.92	22373.92
665.26	22604.66
665.61	22652.72
665.95	22655.45
666.29	22720.98
666.63	22862.43
666.98	22971.11
667.32	22989.13
667.66	22895.74
668.00	23253.46
668.35	23657.32
668.69	23787.57
669.03	23729.13
669.37	23722.85
669.71	24003.29
670.06	23815.97
670.40	24257.78
670.74	24415.61
671.08	24388.30
671.42	24397.59
671.77	24299.29
672.11	24555.96
672.45	24925.14
672.79	25329.82
673.13	25467.99
673.47	25555.10
673.81	25783.11
674.16	25974.80
674.50	26075.56
674.84	26085.66
675.18	26146.83
675.52	26380.02
675.86	26757.67
676.20	26955.91
676.54	26947.99
676.88	27111.83
677.23	27268.02
677.57	27683.90
677.91	27697.28
678.25	27926.92
678.59	28162.85
678.93	28205.72
679.27	28413.52
679.61	28565.34
679.95	28690.95
680.29	28868.44
680.63	29078.97
680.97	29425.76
681.31	29513.69
681.65	29720.40
681.99	29862.12
682.33	30024.04
682.67	29908.54
683.01	30374.11
683.35	30225.56
683.69	30236.48
684.03	29923.83
684.37	30349.80
684.71	30718.44
685.05	31030.28
685.39	30957.37
685.73	31154.79
686.07	31143.87
686.41	27404.83
686.75	23234.89
687.09	21255.18
687.43	22729.45
687.77	26013.57
688.11	27927.47
688.45	28055.53
688.79	27435.68
689.13	27293.14
689.47	27620.82
689.80	28286.82
690.14	28724.54
690.48	29444.60
690.82	30062.54
691.16	30248.50
691.50	30974.30
691.84	31594.97
692.18	31816.42
692.52	32316.40
692.85	31991.46
693.19	32279.26
693.53	32371.29
693.87	32306.02
694.21	32192.16
694.55	32310.39
694.88	32975.85
695.22	32989.23
695.56	32923.15
695.90	33403.19
696.24	33973.34
696.58	34266.34
696.91	34566.98
697.25	34396.86
697.59	33982.90
697.93	33902.89
698.27	34132.27
698.60	34007.75
698.94	33934.02
699.28	34068.37
699.62	34097.31
699.95	33560.47
700.29	33292.87
700.63	33607.44
700.97	33743.70
701.30	33636.66
701.64	33749.16
701.98	33807.60
702.32	33621.09
702.65	33725.40
702.99	34479.60
703.33	34177.87
703.66	34205.45
704.00	34601.11
704.34	34966.47
704.68	35372.24
705.01	34729.45
705.35	34620.78
705.69	34918.69
706.02	34894.11
706.36	34926.88
706.70	35116.93
707.03	34966.47
707.37	35276.94
707.71	35214.41
708.04	34945.45
708.38	34727.54
708.72	34411.88
709.05	34809.19
709.39	35050.30
709.72	34923.06
710.06	35199.67
710.40	35182.74
710.73	35090.72
711.07	34937.25
711.40	34897.66
711.74	34855.34
712.08	34925.79
712.41	35007.43
712.75	34813.28
713.08	34988.59
713.42	34816.83
713.75	35073.24
714.09	35037.74
714.43	34636.07
714.76	34001.20
715.10	33950.95
715.43	34668.83
715.77	34518.92
716.10	33628.74
716.44	32378.11
716.77	31418.03
717.11	30507.09
717.44	29880.41
717.78	29760.54
718.11	29171.54
718.45	28131.99
718.78	28112.33
719.12	28052.53
719.45	28724.54
719.79	28452.02
720.12	28577.08
720.46	28658.18
720.79	30369.47
721.12	31926.19
721.46	33150.06
721.79	33064.05
722.13	32708.52
722.46	32610.22
722.80	32086.48
723.13	30783.70
723.46	30374.93
723.80	29726.68
724.13	29697.46
724.47	30289.46
724.80	30163.58
725.13	29801.77
725.47	30541.77
725.80	30928.70
726.14	30537.40
726.47	30663.01
726.80	31222.79
727.14	30541.22
727.47	29788.93
727.80	29928.47
728.14	31016.35
728.47	31331.74
728.80	29688.17
729.14	29408.29
729.47	30481.42
729.80	31267.02
730.14	31120.66
730.47	30848.96
730.80	30659.73
731.14	30893.47
731.47	31321.36
731.80	31535.99
732.14	32035.42
732.47	32251.68
732.80	32168.13
733.13	32360.36
733.47	32877.27
733.80	33276.76
734.13	33370.97
734.46	33310.35
734.80	32799.18
735.13	32770.23
735.46	32546.87
735.79	32662.37
736.13	32748.93
736.46	32735.55
736.79	32819.65
737.12	33030.19
737.45	32964.10
737.79	33067.60
738.12	33080.70
738.45	32218.64
738.78	31827.89
739.11	32131.26
739.45	32757.40
739.78	32812.28
740.11	33011.34
740.44	32453.21
740.77	32325.41
741.10	32198.16
741.44	32336.61
741.77	32366.92
742.10	32151.20
742.43	32445.29
742.76	32842.87
743.09	33388.72
743.42	33083.16
743.75	33285.50
744.08	32863.34
744.42	32608.30
744.75	32399.14
745.08	32955.64
745.41	33054.22
745.74	33076.06
746.07	32774.05
746.40	32928.06
746.73	32938.98
747.06	33017.35
747.39	33089.99
747.72	32768.59
748.05	32790.71
748.38	32917.96
748.71	32964.10
749.04	32431.09
749.37	31937.66
749.71	32173.86
750.04	32219.74
750.37	32554.51
750.70	32077.47
751.03	31567.12
751.36	32059.18
751.69	32134.00
752.02	32161.30
752.34	31744.61
752.67	31913.91
753.00	31788.84
753.33	32181.23
753.66	32198.44
753.99	32253.32
754.32	32056.45
754.65	31940.12
754.98	31796.76
755.31	31696.82
755.64	31462.81
755.97	31701.46
756.30	31556.19
756.63	31388.26
756.96	31174.45
757.29	30877.91
757.61	31210.22
757.94	30979.49
758.27	30433.91
758.60	30142.00
758.93	29285.68
759.26	23126.48
759.59	15193.47
759.92	8740.46
760.24	5369.77
760.57	4410.51
760.90	5140.67
761.23	7930.01
761.56	13626.36
761.89	16622.95
762.22	15448.78
762.54	12819.74
762.87	11401.45
763.20	11468.90
763.53	12011.47
763.86	12904.66
764.18	14217.27
764.51	15679.79
764.84	16846.59
765.17	18229.93
765.50	19601.25
765.82	20191.61
766.15	21696.73
766.48	22513.18
766.81	23765.99
767.13	25145.78
767.46	25735.87
767.79	26456.75
768.12	26405.96
768.44	27177.64
768.77	26825.66
769.10	26988.13
769.42	26896.38
769.75	26958.10
770.08	27052.57
770.41	27506.40
770.73	27556.92
771.06	27145.14
771.39	26893.38
771.71	26856.52
772.04	26830.30
772.37	26973.66
772.69	26631.79
773.02	26801.08
773.35	26596.29
773.67	26799.99
774.00	26583.18
774.33	26252.23
774.65	25634.29
774.98	25739.42
775.30	25956.23
775.63	26090.85
775.96	25739.69
776.28	25952.13
776.61	25822.70
776.93	25764.27
777.26	25295.42
777.59	24883.09
777.91	24601.02
778.24	24916.41
778.56	24764.04
778.89	24793.26
779.22	24600.47
779.54	24602.11
779.87	24287.00
780.19	24441.28
780.52	24125.89
780.84	23986.36
781.17	23928.19
781.49	24102.41
781.82	24016.67
782.14	23893.51
782.47	23856.11
782.79	23630.01
783.12	23135.77
783.44	22928.24
783.77	22935.61
784.09	22880.18
784.42	23076.24
784.74	22891.65
785.07	22719.35
785.39	22456.39
785.72	22827.21
786.04	22597.29
786.37	22461.03
786.69	22251.59
787.01	22116.15
787.34	21691.27
787.66	21825.34
787.99	21774.55
788.31	21962.96
788.64	21886.78
788.96	21937.57
789.28	21756.25
789.61	21701.64
789.93	21817.42
790.26	21739.05
790.58	21929.38
790.90	21661.78
791.23	21593.24
791.55	21643.48
791.87	21604.16
792.20	21332.19
792.52	21660.41
792.85	21591.87
793.17	21165.35
793.49	21158.52
793.82	21147.05
794.14	21362.77
794.46	20915.22
794.78	21270.20
795.11	21499.03
795.43	21408.65
795.75	21399.09
796.08	21102.54
796.40	21281.40
796.72	21275.12
797.05	21396.09
797.37	21481.83
797.69	21534.80
798.01	21581.77
798.34	21181.19
798.66	21270.48
798.98	21206.58
799.30	20818.83
799.63	20626.60
799.95	20462.48
800.27	20578.54
800.59	20574.71
800.91	20717.25
801.24	20612.40
801.56	20694.86
801.88	20554.51
802.20	20664.00
802.53	20153.10
802.85	20084.29
803.17	19876.22
803.49	20226.29
803.81	19984.08
804.13	19905.16
804.46	19546.36
804.78	19476.46
805.10	19552.91
805.42	19576.67
805.74	19863.39
806.06	19576.12
806.38	19573.12
806.71	19477.55
807.03	19108.37
807.35	19180.73
807.67	19057.03
807.99	19078.06
808.31	18839.40
808.63	18643.89
808.95	18591.46
809.27	18386.12
809.59	18152.10
809.91	17831.80
810.24	18116.33
810.56	17788.11
810.88	18082.74
811.20	17827.70
811.52	17811.87
811.84	17654.58
812.16	17527.61
812.48	17276.94
812.80	16894.65
813.12	16551.41
813.44	16040.78
813.76	15962.41
814.08	15643.20
814.40	15724.03
814.72	15049.84
815.04	14972.84
815.36	14610.21
815.68	14878.08
816.00	14126.89
816.32	13487.65
816.64	13776.82
816.96	13705.01
817.28	14864.70
817.60	13975.34
817.92	13741.87
818.24	13610.53
818.55	13955.13
818.87	13942.84
819.19	13991.45
819.51	13611.35
819.83	13369.41
820.15	13973.15
820.47	14479.41
820.79	15189.92
821.11	14712.61
821.43	14790.16
821.75	14276.53
822.06	14019.85
822.38	13313.44
822.70	11803.95
823.02	11154.60
823.34	11689.81
823.66	12892.10
823.98	13819.97
824.29	13813.69
824.61	14321.86
824.93	14217.00
825.25	14298.10
825.57	13611.89
825.88	13625.82
826.20	13651.21
826.52	14035.96
826.84	14253.86
827.16	13673.88
827.47	13079.69
827.79	12848.96
828.11	12800.35
828.43	13171.17
828.75	12723.35
829.06	12919.68
829.38	12644.71
829.70	13149.32
830.02	12872.44
830.33	12844.59
830.65	12612.21
830.97	12904.39
831.28	12936.34
831.60	12839.40
831.92	12547.22
832.24	12231.56
832.55	12613.85
832.87	12551.86
833.19	12550.23
833.50	12289.45
833.82	12350.89
834.14	12519.64
834.45	12608.11
834.77	12689.49
835.09	12892.92
835.40	12844.86
835.72	12816.19
836.04	12713.79
836.35	12744.92
836.67	12670.92
836.99	12788.88
837.30	12712.42
837.62	12758.03
837.93	12693.31
838.25	12602.11
838.57	12550.77
838.88	12397.86
839.20	12521.83
839.51	12526.20
839.83	12510.09
840.15	12395.13
840.46	12439.09
840.78	12411.78
841.09	12411.51
841.41	12325.50
841.72	12350.34
842.04	12277.71
842.35	12223.64
842.67	12280.17
842.98	12271.70
843.30	12041.78
843.62	11953.31
843.93	11870.03
844.25	11985.26
844.56	11874.67
844.88	11861.29
845.19	11978.71
845.51	11966.96
845.82	12008.20
846.13	12041.51
846.45	11863.20
846.76	11645.30
847.08	11563.65
847.39	11593.69
847.71	11652.12
848.02	11676.15
848.34	11593.14
848.65	11516.96
848.97	11598.60
849.28	11429.03
849.59	10713.06
849.91	9961.32
850.22	10252.40
850.54	10707.87
850.85	11205.12
851.16	11115.01
851.48	10893.01
851.79	10934.24
852.10	10920.04
852.42	11004.96
852.73	10859.97
853.05	10844.95
853.36	10773.95
853.67	10233.84
853.99	8965.73
854.30	7919.63
854.61	8458.66
854.93	9365.22
855.24	10208.71
855.55	10351.53
855.87	10424.98
856.18	10480.96
856.49	10589.09
856.80	10650.80
857.12	10647.53
857.43	10619.40
857.74	10431.26
858.06	10426.07
858.37	10330.50
858.68	10364.09
858.99	10347.70
859.31	10245.58
859.62	10261.69
859.93	10083.11
860.24	10190.69
860.56	10137.99
860.87	10206.53
861.18	9970.33
861.49	9868.21
861.80	10011.02
862.12	9966.51
862.43	10030.68
862.74	9813.32
863.05	9911.90
863.36	9926.09
863.68	9892.78
863.99	9801.31
864.30	9819.05
864.61	9773.73
864.92	9566.20
865.23	9579.58
865.55	9260.64
865.86	8805.17
866.17	7653.94
866.48	7494.75
866.79	8077.19
867.10	8768.86
867.41	8897.47
867.72	9022.53
868.04	9038.64
868.35	9165.34
868.66	8962.18
868.97	8857.60
869.28	8809.00
869.59	9002.05
869.90	8980.21
870.21	8979.66
870.52	8921.22
870.83	8937.06
871.14	8671.65
871.45	8681.20
871.76	8617.31
872.07	8642.16
872.38	8728.17
872.69	8567.88
873.00	8511.63
873.31	8372.92
873.62	8340.42
873.93	8347.52
874.24	8349.16
874.55	8274.61
874.86	8204.44
875.17	8112.69
875.48	8116.78
875.79	8164.02
876.10	8147.09
876.41	8100.40
876.72	8056.98
877.03	7999.91
877.34	7769.72
877.65	7825.15
877.96	7885.77
878.27	7863.93
878.58	7760.44
878.89	7729.31
879.20	7551.54
879.51	7526.97
879.81	7554.55
880.12	7575.57
880.43	7374.60
880.74	7102.08
881.05	7250.90
881.36	7353.85
881.67	7591.41
881.98	7528.33
882.28	7384.43
882.59	7357.40
882.90	7386.07
883.21	7406.82
883.52	7456.79
883.83	7380.61
884.13	7383.61
884.44	7379.51
884.75	7418.29
885.06	7473.99
885.37	7406.55
885.68	7416.65
885.98	7294.59
886.29	7195.20
886.60	7124.75
886.91	7124.20
887.21	7281.76
887.52	7342.92
887.83	7342.10
888.14	7316.71
888.44	7354.94
888.75	7407.09
889.06	7440.41
889.37	7376.51
889.67	7346.47
889.98	7361.76
890.29	7366.41
890.60	7430.30
890.90	7374.87
891.21	7384.16
891.52	7341.01
891.82	7337.46
892.13	7341.01
892.44	7225.78
892.74	7107.54
893.05	6974.02
893.36	7018.53
893.66	7145.77
893.97	7178.27
894.28	6993.13
894.58	6860.70
894.89	6740.27
895.20	6643.34
895.50	6481.41
895.81	6598.56
896.11	6448.64
896.42	6095.57
896.73	6015.02
897.03	6088.20
897.34	5953.04
897.64	6068.54
897.95	6178.86
898.26	6172.58
898.56	5853.09
898.87	5117.46
899.17	4865.70
899.48	5536.34
899.78	6023.21
900.09	5710.83
900.39	5386.43
900.70	5386.43
901.00	5436.40
901.31	5507.67
901.62	5486.92
901.92	5480.36
902.23	5495.93
902.53	5454.97
902.84	5627.27
903.14	5990.17
903.44	6306.92
903.75	6522.10
904.05	6412.33
904.36	6263.78
904.66	6256.68
904.97	6289.18
905.27	6151.01
905.58	6172.03
905.88	6092.57
906.19	5680.52
906.49	5374.69
906.79	5393.26
907.10	5222.32
907.40	5062.58
907.71	5151.32
908.01	5074.59
908.31	4858.60
908.62	5035.55
908.92	4865.43
909.23	4840.85
909.53	4920.59
909.83	4895.46
910.14	4923.04
910.44	4811.63
910.74	4880.45
911.05	4899.01
911.35	5222.87
911.65	5007.97
911.96	4799.89
912.26	4957.45
912.56	5210.31
912.87	4761.94
913.17	4328.31
913.47	4199.43
913.78	4236.29
914.08	4551.68
914.38	4913.76
914.69	4879.90
914.99	4502.53
915.29	4109.04
915.59	3864.93
915.90	4156.28
916.20	4583.90
916.50	4566.42
916.80	4635.78
917.11	4306.47
917.41	3968.96
917.71	3851.55
918.01	4213.35
918.31	4429.62
918.62	4401.22
918.92	4497.61
919.22	4604.11
919.52	4406.68
919.82	4438.36
920.13	4643.70
920.43	4606.02
920.73	4562.60
921.03	4372.28
921.33	4242.03
921.63	4088.02
921.94	4155.47
922.24	4278.07
922.54	4293.36
922.84	4082.01
923.14	4003.37
923.44	4058.80
923.74	3988.90
924.05	3934.83
924.35	3901.52
924.65	3872.03
924.95	3914.08
925.25	3940.02
925.55	3847.72
925.85	3817.14
926.15	3814.96
926.45	3891.69
926.75	4097.03
927.05	3973.33
927.35	3761.98
927.65	3504.76
927.95	3264.19
928.25	3142.68
928.56	3175.17
928.86	3078.78
929.16	3090.25
929.46	2893.10
929.76	2637.51
930.06	2628.23
930.36	2473.13
930.66	2529.10
930.96	2292.91
931.26	2104.22
931.55	2004.55
931.85	1640.01
932.15	1664.32
932.45	1594.41
932.75	1561.37
933.05	1689.71
933.35	1509.76
933.65	1161.61
933.95	1071.50
934.25	1011.70
934.55	1042.55
934.85	1464.98
935.15	1783.37
935.45	1385.79
935.75	1142.22
936.04	1366.95
936.34	1608.88
936.64	1436.85
936.94	1129.93
937.24	1119.28
937.54	1374.32
937.84	1289.95
938.14	1200.38
938.43	1491.19
938.73	1856.82
939.03	2160.20
939.33	2358.71
939.63	2317.75
939.92	2145.18
940.22	1978.34
940.52	1965.23
940.82	1902.97
941.12	1757.16
941.42	1800.57
941.71	1950.49
942.01	1888.23
942.31	1860.37
942.61	1526.69
942.90	1217.31
943.20	1507.85
943.50	1812.59
943.80	1419.65
944.09	1013.61
944.39	1076.96
944.69	1546.90
944.99	1788.56
945.28	1637.83
945.58	1325.45
945.88	1220.59
946.17	1299.78
946.47	1438.77
946.77	1574.75
947.06	1554.82
947.36	1576.94
947.66	1477.54
947.96	1406.54
948.25	1332.27
948.55	1635.10
948.84	1837.98
949.14	1705.28
949.44	1279.57
949.73	1041.46
950.03	1065.49
950.33	1349.47
950.62	1781.46
950.92	1954.85
951.21	1858.74
951.51	1509.76
951.81	1182.63
952.10	1114.10
952.40	1208.85
952.69	1325.45
952.99	1413.37
953.29	1622.26
953.58	1644.38
953.88	1528.33
954.17	1437.40
954.47	1276.29
954.76	1339.92
955.06	1449.69
955.35	1291.59
955.65	1230.15
955.94	1375.96
956.24	1389.34
956.53	1238.61
956.83	1247.35
957.12	1506.49
957.42	1707.19
957.71	1686.16
958.01	1492.29
958.30	1440.95
958.60	1422.66
958.89	1236.97
959.19	1087.33
959.48	1246.26
959.78	1390.98
960.07	1506.49
960.37	1446.41
960.66	1434.67
960.95	1492.01
961.25	1613.80
961.54	1594.14
961.84	1418.56
962.13	1299.78
962.42	1297.59
962.72	1446.41
963.01	1640.01
963.31	1628.27
963.60	1472.35
963.89	1353.30
964.19	1421.02
964.48	1436.58
964.77	1453.51
965.07	1507.30
965.36	1577.48
965.65	1495.56
965.95	1425.11
966.24	1338.55
966.53	1367.22
966.83	1457.33
967.12	1568.20
967.41	1680.70
967.71	1711.56
968.00	1654.21
968.29	1584.85
968.58	1638.92
968.88	1668.68
969.17	1709.10
969.46	1647.93
969.76	1657.22
970.05	1586.22
970.34	1548.54
970.63	1610.80
970.92	1647.39
971.22	1588.68
971.51	1579.67
971.80	1541.98
972.09	1513.59
972.39	1535.43
972.68	1444.77
972.97	1471.53
973.26	1430.57
973.55	1360.94
973.84	1247.62
974.14	1289.13
974.43	1305.78
974.72	1333.36
975.01	1312.61
975.30	1266.74
975.59	1251.99
975.89	1185.09
976.18	1182.09
976.47	1197.93
976.76	1220.04
977.05	1248.99
977.34	1295.14
977.63	1271.38
977.92	1236.97
978.21	1172.53
978.51	1209.39
978.80	1149.87
979.09	1120.92
979.38	1112.73
979.67	1106.18
979.96	1105.63
980.25	1107.00
980.54	1132.39
980.83	1132.39
981.12	1122.83
981.41	1149.05
981.70	1114.37
981.99	1073.95
982.28	1091.43
982.57	1011.15
982.86	1019.89
983.15	1007.05
983.44	1014.15
983.73	1021.80
984.02	990.67
984.31	967.19
984.60	970.74
984.89	964.46
985.18	933.05
985.47	915.85
985.76	919.40
986.05	909.30
986.34	894.55
986.63	843.22
986.92	845.95
987.21	828.74
987.49	826.29
987.78	811.27
988.07	785.05
988.36	751.74
988.65	745.46
988.94	720.34
989.23	737.81
989.52	692.21
989.80	666.00
990.09	683.75
990.38	681.29
990.67	635.69
990.96	639.79
991.25	598.28
991.54	583.81
991.82	576.43
992.11	558.14
992.40	559.51
992.69	553.50
992.98	523.46
993.26	508.99
993.55	502.43
993.84	477.86
994.13	466.12
994.42	433.35
994.70	435.26
994.99	427.34
995.28	392.94
995.57	368.63
995.85	395.94
996.14	348.97
996.43	338.05
996.72	339.42
997.00	332.32
997.29	313.20
997.58	285.62
997.86	280.44
998.15	253.40
998.44	245.76
998.73	227.19
999.01	226.10
999.30	227.73
999.59	196.88
999.87	204.80
1000.16	192.24
1000.45	157.83
1000.73	149.09
1001.02	153.19
1001.30	125.34
1001.59	121.24
1001.88	109.50
1002.16	102.94
1002.45	107.04
1002.74	94.48
1003.02	69.36
1003.31	68.81
1003.59	51.06
1003.88	64.72
1004.17	43.42
1004.45	51.61
1004.74	33.59
1005.02	36.04
1005.31	24.85
1005.59	7.65
1005.88	3.55
1006.16	6.01
1006.45	21.03
1006.73	18.84
1007.02	4.10
1007.31	5.73
1007.59	10.10
1007.88	0.00
1008.16	0.00
1008.45	0.27
1008.73	0.00
1009.02	2.46
1009.30	0.00
1009.58	0.00
1009.87	1.91
1010.15	0.00
1010.44	0.00
1010.72	0.00
1011.01	0.00
1011.29	0.27
1011.58	0.00
1011.86	0.00
1012.14	0.00
1012.43	0.00
1012.71	2.73
1013.00	0.00
1013.28	0.00
1013.56	0.00
1013.85	0.00
1014.13	0.00
1014.42	0.00
1014.70	0.00
1014.98	0.00
1015.27	0.00
1015.55	0.00
1015.83	0.00
1016.12	0.00
1016.40	0.00
1016.68	0.00
1016.97	0.00
1017.25	0.00
1017.53	0.00
1017.82	0.00
1018.10	0.00
1018.38	0.00
1018.67	0.00
1018.95	0.00
1019.23	0.00
1019.51	0.00
1019.80	0.00
1020.08	0.00
1020.36	0.00
1020.64	0.00
1020.93	0.00
1021.21	0.00
1021.49	0.00
1021.77	0.00
1022.06	0.00
1022.34	0.00
1022.62	0.00
1022.90	0.00
1023.18	0.00
1023.47	0.00
1023.75	0.00
1024.03	0.00
1024.31	0.00
1024.59	0.00
1024.87	0.00
1025.16	0.00
1025.44	0.00
>>>>>End Processed Spectral Data<<<<<
